time (s)	coil I (A)	last det (V)	int current (uC)
426497.479267	3.266413	19.335937	-406.835937
426497.481270	3.267047	35.937523	0.226911
426499.577434	3.266304	35.546875	-385.937500
426499.579434	3.266509	35.931602	0.134900
426501.640554	3.265771	56.250000	-359.277344
426501.642555	3.266489	35.931381	0.164498
426502.625050	3.266459	170.117187	38.183594
426502.627051	3.266645	35.933098	0.235255
426506.819397	3.266314	188.281250	16.796875
426506.821401	3.266549	35.932037	0.247794
426508.980091	3.265293	193.652344	0.683594
426508.982092	3.266334	35.929668	0.160309
426511.044265	3.265383	194.335937	3.027344
426511.046267	3.266647	35.933117	0.193749
426513.142454	3.265885	194.433594	1.757812
426513.144454	3.266494	35.931435	0.315032
426515.206579	3.265995	190.722656	7.421875
426515.208583	3.266778	35.934551	0.195650
426517.302726	3.264872	184.472656	11.425781
426517.304728	3.266567	35.932240	0.157331
426519.366872	3.264337	176.953125	19.726562
426519.368875	3.266257	35.928829	0.170139
426522.513110	3.265334	27.734375	-403.808594
426522.515116	3.266530	35.931831	0.130727
426524.577279	3.264830	19.824219	-413.281250
426524.579281	3.266331	35.929642	0.129424
426527.789600	3.266014	203.613281	-7.421875
426527.791603	3.266609	35.932701	0.121833
426529.854205	3.266132	191.601562	3.320312
426529.856207	3.266736	191.601562	3.320312
426529.858208	3.266835	35.935181	0.122742
426532.966482	3.265876	30.371094	-402.148437
426532.968486	3.266734	35.934074	0.107728
426535.030626	3.265707	18.359375	-418.554687
426535.032629	3.266771	35.934483	0.107319
426537.029278	2.157668	45.996094	-359.277344
426537.031278	3.266396	35.930355	0.176906
426538.112295	3.266500	198.828125	5.664062
426538.116296	3.266889	35.935776	0.795301
426540.174367	2.263143	198.828125	7.519531
426540.176370	3.266124	35.927368	0.240892
426542.306493	3.266186	194.726562	8.203125
426542.308494	3.266586	35.932446	0.183333
426544.401139	3.263060	190.039062	10.351562
426544.403141	3.265911	190.039062	10.351562
426544.405143	3.266490	35.931389	0.158972
426547.547381	3.264750	45.507812	-379.882812
426547.549384	3.266509	35.931595	0.116369
426549.647561	3.266676	39.941406	-387.109375
426549.649563	3.266830	35.935131	0.103759
426551.644244	3.265527	65.039062	-343.261719
426551.646247	3.266480	35.931286	0.192916
426553.740413	3.264239	61.718750	-349.609375
426553.742415	3.266342	35.929760	0.182812
426555.840600	3.266940	57.812500	-358.007812
426555.842602	3.267145	35.938595	0.164519
426557.904723	3.266784	75.585937	-328.710937
426557.906724	3.267072	35.937798	0.193158
426558.919641	3.266434	186.035156	23.730469
426558.921643	3.266876	35.935635	0.226297
426560.981794	3.263331	190.917969	25.000000
426560.983796	3.266115	190.917969	25.000000
426560.985797	3.266584	35.932426	0.244201
426563.146399	3.266424	204.003906	3.515625
426563.148402	3.266981	35.936794	0.326147
426565.245409	3.266911	211.132812	-5.664062
426565.247411	3.267099	35.938091	0.216990
426568.355632	3.265522	28.320312	-403.613281
426568.359634	3.266898	35.935875	0.119756
426570.453773	3.266142	25.585937	-405.957031
426570.455776	3.266685	35.933537	0.343411
426572.485965	3.266192	62.890625	-342.675781
426572.487965	3.266571	35.932278	0.196276
426574.582624	3.266206	73.925781	-331.054687
426574.584627	3.266714	35.933853	0.180960
426577.792920	3.265555	209.277344	-5.664062
426577.794922	3.266646	35.933109	0.131059
426579.889037	3.264104	218.554687	-14.160156
426579.891039	3.266556	218.554687	-14.160156
426579.893040	3.267087	35.937958	0.126080
426581.955137	3.266027	217.382812	-10.449219
426581.957138	3.266625	35.932880	0.154011
426585.037400	3.267049	27.343750	-404.687500
426585.041399	3.267253	35.939781	0.123973
426587.131527	3.265499	27.929687	-398.730469
426587.133529	3.266875	35.935627	0.121554
426589.163689	3.265815	57.812500	-348.730469
426589.165688	3.266576	35.932339	0.183377
426591.260783	3.265680	57.812500	-350.585937
426591.262786	3.266541	35.931957	0.176615
426593.324900	3.265263	71.972656	-330.371094
426593.326903	3.266341	35.929752	0.203310
426595.421064	3.263586	71.289062	-333.105469
426595.423064	3.266197	71.289062	-333.105469
426595.425064	3.266749	35.934242	0.193493
426597.519142	3.265486	62.402344	-345.996094
426597.521143	3.266580	35.932384	0.182060
426599.583400	3.265359	66.601562	-338.183594
426599.585402	3.266608	35.932693	0.194506
426601.679559	3.263013	54.589844	-354.980469
426601.681559	3.266046	54.589844	-354.980469
426601.683559	3.266505	35.931557	0.181148
426603.745697	1.865087	59.179687	-344.921875
426603.747700	3.266963	35.936592	0.192132
426605.810422	1.639141	60.058594	-342.089844
426605.812423	3.266735	35.934082	0.413768
426607.907489	3.266028	49.707031	-362.890625
426607.909490	3.266514	35.931656	0.187338
426609.970144	3.264192	50.000000	-364.355469
426609.972146	3.266613	50.000000	-364.355469
426609.974146	3.267044	35.937489	0.197978
426613.248406	3.265773	230.078125	-18.359375
426613.250406	3.266440	35.930843	0.130540
426615.346567	3.266350	227.929687	-16.796875
426615.348569	3.266655	35.933208	0.109533
426617.344671	3.266020	215.429687	-1.464844
426617.346674	3.266572	35.932293	0.182097
426619.440800	3.265108	208.203125	4.101562
426619.442803	3.266384	35.930222	0.149385
426620.359714	3.266203	112.695312	-276.171875
426620.361715	3.266658	35.933235	0.644811
426622.422343	3.264527	106.933594	-278.417969
426622.424344	3.266219	35.928413	0.283437
426624.586504	3.266019	50.390625	-358.496094
426624.588507	3.266480	35.931286	0.199841
426626.650583	3.266179	56.933594	-353.027344
426626.652586	3.266821	35.935032	0.200888
426628.746689	3.264805	43.261719	-382.226562
426628.748697	3.266335	35.929680	0.176569
426630.810885	3.264631	58.007812	-359.082031
426630.812886	3.266434	35.930779	0.195285
426631.895498	2.853811	226.269531	-6.152344
426631.897501	3.266846	35.935307	0.249224
426633.991648	3.266460	228.417969	-6.835937
426633.993648	3.266726	35.933987	0.236819
426636.120262	3.265866	235.546875	-13.867187
426636.122264	3.266656	35.933216	0.198181
426638.216422	3.264601	237.890625	-16.406250
426638.218425	3.266541	35.931957	0.180104
426640.314611	3.265735	239.453125	-17.578125
426640.318611	3.266422	35.930645	0.162342
426642.379270	3.266156	235.937500	-13.281250
426642.381271	3.266823	35.935051	0.206360
426645.494129	3.266528	27.539062	-416.601562
426645.496130	3.266541	35.931957	0.112365
426647.558852	3.266436	33.691406	-397.656250
426647.560855	3.266587	35.932461	0.335477
426649.587503	3.265466	61.914062	-345.605469
426649.591509	3.266774	35.934517	0.207616
426651.685647	3.266435	67.675781	-336.132812
426651.687649	3.266861	35.935474	0.207431
426653.782257	3.265925	74.218750	-330.371094
426653.784260	3.266746	35.934208	0.190582
426654.799216	3.266666	211.230469	15.527344
426654.801218	3.266990	35.936893	0.234945
426658.960426	3.266177	226.757812	2.734375
426658.964425	3.266662	35.933285	0.662056
426661.121529	3.265041	239.746094	-13.671875
426661.123535	3.266380	35.930183	0.205424
426663.220606	3.266704	242.871094	-17.187500
426663.222607	3.266941	35.936352	0.189724
426665.317261	3.266250	244.140625	-18.457031
426665.319263	3.266727	35.933998	0.175218
426667.413933	3.266190	246.191406	-19.726562
426667.415934	3.266835	35.935181	0.164296
426670.494123	3.266022	30.175781	-407.519531
426670.496126	3.266785	35.934635	0.124453
426672.558270	3.265851	36.132812	-395.019531
426672.560272	3.266716	35.933872	0.142608
426674.590422	3.265912	58.203125	-356.542969
426674.592423	3.266447	35.930920	0.385957
426676.688547	3.266468	49.121094	-370.019531
426676.690549	3.266854	35.935394	0.189578
426678.750764	3.264950	58.789062	-354.687500
426678.752768	3.265027	35.915295	0.217057
426680.848958	3.265987	51.953125	-366.503906
426680.850959	3.266528	35.931808	0.260533
426682.913084	3.265813	57.812500	-357.031250
426682.915083	3.266523	35.931755	0.219329
426685.009169	3.264762	54.980469	-364.550781
426685.013170	3.266806	35.934864	0.204715
426687.107361	3.265804	48.828125	-376.660156
426687.109361	3.266607	35.932674	0.186472
426688.187392	3.263754	239.550781	-12.500000
426688.189393	3.263873	239.550781	-12.500000
426688.191393	3.266432	35.930752	0.230255
426690.251995	3.264772	240.039062	-12.695312
426690.253996	3.266627	35.932899	0.242978
426692.418125	3.266483	253.808594	-24.218750
426692.420127	3.266592	35.932507	0.289904
426694.480187	3.266167	251.367187	-20.703125
426694.482187	3.266976	35.936733	0.197947
426696.576334	3.264643	250.000000	-18.066406
426696.578336	3.266292	35.929211	0.180007
426698.642439	3.266567	244.726562	-10.742187
426698.644440	3.267036	35.937397	0.194960
426700.705484	3.265188	238.281250	-4.101562
426700.707486	3.265277	35.918045	0.206866
426702.803597	3.266222	234.472656	-3.125000
426702.805598	3.266284	35.929123	0.318970
426703.757575	3.266598	99.414062	-285.937500
426703.759580	3.266712	35.933838	0.257876
426705.820307	3.267013	93.750000	-288.964844
426705.822310	3.267065	35.937717	0.419906
426707.948434	3.266177	68.652344	-321.484375
426707.950436	3.266534	35.931870	0.223525
426710.013532	3.266684	61.523437	-335.742187
426710.015536	3.266881	35.935696	0.232124
426712.107644	3.262668	54.394531	-352.441406
426712.109648	3.266058	54.394531	-352.441406
426712.111647	3.266577	35.932346	0.212324
426714.205739	3.265167	49.707031	-364.941406
426714.207741	3.266548	35.932026	0.190318
426716.271867	3.266257	62.011719	-348.632812
426716.273867	3.266559	35.932152	0.211217
426717.384399	3.265163	249.023437	-15.917969
426717.386399	3.266351	35.929867	0.216591
426719.450441	3.266316	243.261719	-11.621094
426719.452443	3.266698	35.933678	0.228495
426722.595080	3.265672	37.890625	-374.316406
426722.597083	3.266407	35.930477	0.137340
426724.691745	3.265298	33.496094	-367.187500
426724.693746	3.266442	35.930859	0.127795
426726.693889	3.267129	70.898437	-315.234375
426726.695891	3.267146	35.938606	0.644491
426728.788987	3.266276	74.804687	-304.882812
426728.790988	3.266686	35.933544	0.225116
426730.885630	3.266116	76.953125	-300.097656
426730.887632	3.266793	35.934723	0.240638
426731.933663	3.265788	231.445312	3.320312
426731.935667	3.266745	35.934189	0.228204
426735.996542	3.265075	223.828125	13.671875
426735.998543	3.266372	35.930096	0.254737
426738.161181	3.266298	248.339844	-8.398437
426738.163184	3.266613	35.932747	0.271258
426740.321330	3.263880	259.179687	-20.507812
426740.323330	3.265995	35.925949	0.209465
426742.419449	3.265433	263.183594	-24.902344
426742.421451	3.266347	35.929813	0.200252
426744.516047	3.264746	265.332031	-26.855469
426744.518050	3.266239	35.928627	0.188368
426746.580191	3.264792	263.574219	-25.585937
426746.582191	3.266790	35.934685	0.207198
426748.678303	3.265775	264.843750	-26.367187
426748.684302	3.266884	35.935722	0.197302
426750.776433	3.266145	266.796875	-27.929687
426750.778435	3.266505	35.931549	0.657946
426752.839459	3.265797	266.113281	-27.246094
426752.841460	3.267005	35.937054	0.203579
426754.935614	3.263445	268.457031	-29.199219
426754.937616	3.266254	268.457031	-29.199219
426754.939616	3.266807	35.934879	0.196077
426757.001732	3.266178	267.480469	-26.464844
426757.003735	3.266824	35.935066	0.235619
426759.097897	3.264950	267.675781	-26.269531
426759.099899	3.266406	35.930470	0.201925
426761.162572	3.265598	264.941406	-22.656250
426761.164574	3.266729	35.934021	0.220328
426763.261248	3.266645	265.039062	-20.996094
426763.263250	3.266939	35.936325	0.198158
426765.323345	3.264088	258.300781	-13.476562
426765.325346	3.266273	35.929005	0.210506
426766.273897	3.264784	103.125000	-273.535156
426766.275899	3.266482	35.931301	0.251789
426768.272022	3.263087	157.128906	-213.574219
426768.274023	3.266367	157.128906	-213.574219
426768.276022	3.266938	35.936317	0.261326
426770.340180	3.266894	169.921875	-198.828125
426770.342183	3.267014	35.937153	0.263500
426772.404261	3.266672	168.359375	-198.339844
426772.406262	3.266824	35.935059	0.256883
426774.564441	3.265097	113.671875	-250.585937
426774.566443	3.266481	35.931293	0.298222
426776.726578	3.264076	59.667969	-313.183594
426776.728580	3.266277	35.929043	0.224755
426778.826689	3.266707	57.714844	-323.632812
426778.828691	3.266910	35.936008	0.198715
426780.890771	3.266634	64.257812	-321.386719
426780.892772	3.266888	35.935768	0.220431
426781.971741	3.266314	253.125000	-14.746094
426781.973743	3.266604	35.932640	0.234265
426784.066846	3.264706	258.398437	-18.261719
426784.068846	3.266439	35.930832	0.228638
426786.196959	3.264859	265.527344	-22.558594
426786.198961	3.266305	35.929352	0.188204
426789.311215	3.265994	37.109375	-322.558594
426789.313216	3.266054	35.926598	0.132538
426791.377385	3.266551	47.265625	-306.250000
426791.379389	3.266711	35.933826	0.203936
426792.389942	3.264752	247.265625	-7.226562
426792.391946	3.266544	35.931984	0.229657
426793.242874	3.265770	165.136719	-197.363281
426793.244876	3.266505	35.931557	0.266373
426795.339120	3.265126	179.003906	-185.937500
426795.341122	3.266778	35.934551	0.260908
426797.437209	3.265692	173.828125	-192.675781
426797.439211	3.266454	35.930992	0.264496
426799.535846	3.266669	163.281250	-203.515625
426799.537848	3.266862	35.935482	0.265573
426802.684659	3.266737	237.207031	1.855469
426802.686661	3.266747	35.934216	0.491753
