time (s)	coil I (A)	last det (V)	int current (uC)
1678.140321	3.267764	221.093750	-2.832031
1678.142323	3.267798	221.093750	-2.832031
1678.144323	3.267804	221.093750	-2.832031
1678.146322	3.267661	221.093750	-2.832031
1678.148324	3.267151	221.093750	-2.832031
1678.150326	3.266909	35.935997	0.425298
1679.184379	3.266086	90.039062	-224.902344
1679.186381	3.267299	90.039062	-224.902344
1679.188387	3.267575	90.039062	-224.902344
1679.190385	3.267582	90.039062	-224.902344
1679.192385	3.267299	90.039062	-224.902344
1679.194386	3.266820	90.039062	-224.902344
1679.196385	3.266740	35.934139	0.430017
1680.220452	3.266117	221.484375	-4.785156
1680.222455	3.267401	221.484375	-4.785156
1680.224456	3.267520	221.484375	-4.785156
1680.226454	3.267524	221.484375	-4.785156
1680.228455	3.267192	221.484375	-4.785156
1680.230454	3.266832	221.484375	-4.785156
1680.232455	3.266782	35.934597	0.429624
1681.266479	3.265226	91.699219	-216.113281
1681.268480	3.267120	91.699219	-216.113281
1681.270479	3.267476	91.699219	-216.113281
1681.272478	3.267516	91.699219	-216.113281
1681.274480	3.267355	91.699219	-216.113281
1681.276479	3.266787	91.699219	-216.113281
1681.278480	3.266655	35.933208	0.420285
1682.306543	3.266741	217.187500	-5.468750
1682.308545	3.267639	217.187500	-5.468750
1682.310546	3.267787	217.187500	-5.468750
1682.314545	3.267323	217.187500	-5.468750
1682.316546	3.266971	217.187500	-5.468750
1682.318546	3.266866	35.935528	0.410943
1683.350586	3.266388	83.593750	-230.566406
1683.352587	3.267599	83.593750	-230.566406
1683.354588	3.267896	83.593750	-230.566406
1683.356597	3.267912	83.593750	-230.566406
1683.358596	3.267566	83.593750	-230.566406
1683.360596	3.267071	83.593750	-230.566406
1683.362596	3.266998	35.936981	0.402079
1684.390606	3.265775	212.988281	-4.785156
1684.392606	3.267260	212.988281	-4.785156
1684.394606	3.267491	212.988281	-4.785156
1684.396607	3.267551	212.988281	-4.785156
1684.398606	3.267221	212.988281	-4.785156
1684.400607	3.267153	212.988281	-4.785156
1684.402607	3.266762	35.934376	0.409335
1685.434660	3.264710	84.863281	-228.125000
1685.436664	3.267033	84.863281	-228.125000
1685.438664	3.267464	84.863281	-228.125000
1685.440662	3.267593	84.863281	-228.125000
1685.442664	3.267373	84.863281	-228.125000
1685.444664	3.266928	84.863281	-228.125000
1685.448661	3.266721	35.933933	0.431776
1686.476708	3.267462	217.578125	-5.175781
1686.478709	3.267798	217.578125	-5.175781
1686.480709	3.267858	217.578125	-5.175781
1686.482710	3.267624	217.578125	-5.175781
1686.484708	3.267030	217.578125	-5.175781
1686.486708	3.266991	35.936901	0.437251
1687.519291	3.265954	83.398437	-235.351562
1687.521294	3.267164	83.398437	-235.351562
1687.523293	3.267436	83.398437	-235.351562
1687.525303	3.267436	83.398437	-235.351562
1687.527302	3.267018	83.398437	-235.351562
1687.529300	3.266700	83.398437	-235.351562
1687.531300	3.266708	35.933792	0.427116
1688.557357	3.264438	220.605469	-4.882812
1688.559359	3.267064	220.605469	-4.882812
1688.561359	3.267562	220.605469	-4.882812
1688.563359	3.267623	220.605469	-4.882812
1688.565359	3.267486	220.605469	-4.882812
1688.567361	3.266947	220.605469	-4.882812
1688.569359	3.266800	35.934803	0.426377
1689.601940	3.267014	98.144531	-207.714844
1689.603943	3.267843	98.144531	-207.714844
1689.605941	3.268029	98.144531	-207.714844
1689.607942	3.268006	98.144531	-207.714844
1689.609943	3.267447	98.144531	-207.714844
1689.611943	3.267237	35.939606	0.424801
1690.642942	3.266481	223.046875	-3.613281
1690.644944	3.267573	223.046875	-3.613281
1690.646943	3.267807	223.046875	-3.613281
1690.648945	3.267843	223.046875	-3.613281
1690.650945	3.267538	223.046875	-3.613281
1690.652946	3.267073	35.937809	0.413825
1691.685002	3.266210	85.546875	-233.593750
1691.687002	3.267277	85.546875	-233.593750
1691.689003	3.267512	85.546875	-233.593750
1691.691004	3.267508	85.546875	-233.593750
1691.693005	3.267124	85.546875	-233.593750
1691.695004	3.266748	35.934223	0.430647
1692.729060	3.266380	215.429687	-3.125000
1692.731060	3.267328	215.429687	-3.125000
1692.733060	3.267457	215.429687	-3.125000
1692.735060	3.267451	215.429687	-3.125000
1692.737061	3.267443	215.429687	-3.125000
1692.739059	3.266749	35.934235	0.437843
1693.767134	3.265791	92.285156	-220.605469
1693.769134	3.267205	92.285156	-220.605469
1693.771137	3.267392	92.285156	-220.605469
1693.773135	3.267408	92.285156	-220.605469
1693.775135	3.267129	92.285156	-220.605469
1693.777136	3.266698	92.285156	-220.605469
1693.781134	3.266676	35.933437	0.425997
1694.812073	3.265190	218.359375	-8.496094
1694.814076	3.267242	218.359375	-8.496094
1694.816075	3.267675	218.359375	-8.496094
1694.818075	3.267790	218.359375	-8.496094
1694.820075	3.267565	218.359375	-8.496094
1694.822076	3.267030	218.359375	-8.496094
1694.824076	3.266950	35.936451	0.425164
1695.848631	3.266054	76.953125	-251.367187
1695.850634	3.267610	76.953125	-251.367187
1695.852633	3.267847	76.953125	-251.367187
1695.858633	3.267198	76.953125	-251.367187
1695.860633	3.267062	76.953125	-251.367187
1695.862633	3.267076	35.937832	0.431457
1696.898696	3.267639	210.546875	-7.324219
1696.902701	3.267965	210.546875	-7.324219
1696.906701	3.267108	210.546875	-7.324219
1696.908704	3.267050	210.546875	-7.324219
1696.910702	3.267007	35.937080	0.430710
1697.932772	3.263733	81.933594	-230.664062
1697.934771	3.266869	81.933594	-230.664062
1697.936772	3.267427	81.933594	-230.664062
1697.938772	3.267528	81.933594	-230.664062
1697.940771	3.267461	81.933594	-230.664062
1697.942772	3.266893	81.933594	-230.664062
1697.944772	3.266732	35.934048	0.449188
1698.979337	3.266882	211.132812	-6.152344
1698.981342	3.267582	211.132812	-6.152344
1698.983340	3.267731	211.132812	-6.152344
1698.985340	3.267712	211.132812	-6.152344
1698.987343	3.267147	211.132812	-6.152344
1698.989340	3.266890	35.935783	0.530508
1700.023346	3.267196	87.011719	-226.269531
1700.025348	3.267239	87.011719	-226.269531
1700.027348	3.267420	87.011719	-226.269531
1700.029349	3.267097	87.011719	-226.269531
1700.031348	3.266721	87.011719	-226.269531
1700.033348	3.266652	35.933170	0.428863
1701.061417	3.266948	210.058594	-1.757812
1701.063418	3.267888	210.058594	-1.757812
1701.065420	3.268023	210.058594	-1.757812
1701.067419	3.268059	210.058594	-1.757812
1701.069419	3.267553	210.058594	-1.757812
1701.071419	3.267554	35.943096	0.425228
1702.103496	3.266173	83.886719	-239.062500
1702.105498	3.267710	83.886719	-239.062500
1702.107500	3.267970	83.886719	-239.062500
1702.109499	3.268001	83.886719	-239.062500
1702.111498	3.267686	83.886719	-239.062500
1702.113499	3.267274	83.886719	-239.062500
1702.115499	3.267155	35.938702	0.436361
1703.145562	3.265646	218.554687	-3.906250
1703.147564	3.267302	218.554687	-3.906250
1703.149564	3.267630	218.554687	-3.906250
1703.151564	3.267653	218.554687	-3.906250
1703.153565	3.267406	218.554687	-3.906250
1703.155564	3.266871	218.554687	-3.906250
1703.157565	3.266838	35.935219	0.446529
1704.186112	3.265443	74.121094	-259.179687
1704.188113	3.267405	74.121094	-259.179687
1704.190114	3.267826	74.121094	-259.179687
1704.192113	3.267905	74.121094	-259.179687
1704.194114	3.267747	74.121094	-259.179687
1704.196114	3.267151	74.121094	-259.179687
1704.198115	3.267038	35.937416	0.443366
1705.232178	3.267094	210.644531	-7.226562
1705.234178	3.267918	210.644531	-7.226562
1705.236178	3.267925	210.644531	-7.226562
1705.238179	3.267951	210.644531	-7.226562
1705.240179	3.267425	210.644531	-7.226562
1705.242179	3.267246	35.939705	0.473143
1706.268235	3.265203	72.265625	-256.640625
1706.270237	3.265384	72.265625	-256.640625
1706.272238	3.267703	72.265625	-256.640625
1706.274237	3.267716	72.265625	-256.640625
1706.276237	3.267651	72.265625	-256.640625
1706.278238	3.267016	72.265625	-256.640625
1706.280237	3.266928	35.936211	0.434769
1707.314315	3.266533	205.859375	-5.566406
1707.316317	3.267773	205.859375	-5.566406
1707.318316	3.267954	205.859375	-5.566406
1707.320317	3.267977	205.859375	-5.566406
1707.322318	3.267620	205.859375	-5.566406
1707.324317	3.267202	35.939224	0.431216
1708.358362	3.267181	69.433594	-258.691406
1708.362363	3.267627	69.433594	-258.691406
1708.364362	3.267365	69.433594	-258.691406
1708.366363	3.266986	69.433594	-258.691406
1708.368363	3.266804	35.934837	0.455876
1709.396377	3.265880	213.281250	-3.417969
1709.398379	3.267289	213.281250	-3.417969
1709.400378	3.267595	213.281250	-3.417969
1709.402379	3.267544	213.281250	-3.417969
1709.404379	3.267292	213.281250	-3.417969
1709.406383	3.266881	213.281250	-3.417969
1709.408389	3.266815	35.934971	0.441863
1710.441365	3.266936	75.976562	-256.835937
1710.443368	3.267694	75.976562	-256.835937
1710.445370	3.267781	75.976562	-256.835937
1710.447368	3.267786	75.976562	-256.835937
1710.449370	3.267205	75.976562	-256.835937
1710.451368	3.266957	35.936523	0.535958
1711.479437	3.267262	213.671875	-1.367187
1711.481441	3.267567	213.671875	-1.367187
1711.483444	3.267561	213.671875	-1.367187
1711.485441	3.267176	213.671875	-1.367187
1711.487442	3.266882	213.671875	-1.367187
1711.489442	3.266756	35.934315	0.435181
1712.523472	3.266084	75.781250	-255.468750
1712.525474	3.267255	75.781250	-255.468750
1712.527475	3.267451	75.781250	-255.468750
1712.529475	3.267435	75.781250	-255.468750
1712.531474	3.267093	75.781250	-255.468750
1712.533475	3.266698	35.933678	0.441209
1713.567509	3.266445	207.421875	-4.492187
1713.569514	3.267605	207.421875	-4.492187
1713.571521	3.267834	207.421875	-4.492187
1713.573522	3.267820	207.421875	-4.492187
1713.575520	3.267380	207.421875	-4.492187
1713.577520	3.267045	35.937496	0.451672
1714.605543	3.267097	68.554687	-272.753906
1714.607545	3.267575	68.554687	-272.753906
1714.609549	3.267738	68.554687	-272.753906
1714.611555	3.267678	68.554687	-272.753906
1714.613562	3.267096	68.554687	-272.753906
1714.615560	3.266933	35.936264	0.455707
1715.649591	2.773795	204.199219	-6.542969
1715.651593	3.267197	204.199219	-6.542969
1715.653592	3.267491	204.199219	-6.542969
1715.655593	3.267564	204.199219	-6.542969
1715.657592	3.267198	204.199219	-6.542969
1715.659592	3.266887	204.199219	-6.542969
1715.661594	3.266759	35.934349	0.433175
1716.691632	3.267935	79.101562	-245.410156
1716.693634	3.267992	79.101562	-245.410156
1716.695635	3.267488	79.101562	-245.410156
1716.697634	3.267214	35.939350	0.433769
1717.732598	3.266133	204.980469	-5.957031
1717.734599	3.267330	204.980469	-5.957031
1717.738601	3.267583	204.980469	-5.957031
1717.740599	3.267159	204.980469	-5.957031
1717.742600	3.266848	35.935326	0.435704
1718.774598	3.265414	67.675781	-261.621094
1718.776597	3.267195	67.675781	-261.621094
1718.778598	3.267524	67.675781	-261.621094
1718.780598	3.267574	67.675781	-261.621094
1718.782598	3.267429	67.675781	-261.621094
1718.784598	3.266837	67.675781	-261.621094
1718.786599	3.266772	35.934494	0.449568
1719.816625	3.267164	207.226562	-4.394531
1719.818626	3.267905	207.226562	-4.394531
1719.820627	3.267945	207.226562	-4.394531
1719.822626	3.268002	207.226562	-4.394531
1719.824628	3.267424	207.226562	-4.394531
1719.826627	3.267172	35.938889	0.442549
1720.857224	3.266409	60.937500	-276.464844
1720.859225	3.267724	60.937500	-276.464844
1720.861226	3.267864	60.937500	-276.464844
1720.865224	3.267664	60.937500	-276.464844
1720.867225	3.267212	60.937500	-276.464844
1720.869226	3.267126	35.938381	0.442762
1721.895253	3.265776	201.367187	-3.417969
1721.897256	3.267418	201.367187	-3.417969
1721.899255	3.267812	201.367187	-3.417969
1721.901255	3.267773	201.367187	-3.417969
1721.903253	3.267606	201.367187	-3.417969
1721.905253	3.267048	201.367187	-3.417969
1721.907255	3.266941	35.936352	0.431425
1722.941287	3.264392	75.976562	-250.000000
1722.943289	3.267205	75.976562	-250.000000
1722.945289	3.267765	75.976562	-250.000000
1722.947290	3.267800	75.976562	-250.000000
1722.949289	3.267814	75.976562	-250.000000
1722.951289	3.267153	75.976562	-250.000000
1722.953290	3.267109	35.938194	0.430250
1723.981842	3.266112	206.347656	-3.515625
1723.983844	3.267288	206.347656	-3.515625
1723.985842	3.267462	206.347656	-3.515625
1723.987842	3.267528	206.347656	-3.515625
1723.989842	3.267201	206.347656	-3.515625
1723.991843	3.267165	206.347656	-3.515625
1723.993841	3.266716	35.933880	0.430601
1725.026432	3.266701	77.441406	-250.683594
1725.028435	3.267345	77.441406	-250.683594
1725.030435	3.267464	77.441406	-250.683594
1725.032434	3.267400	77.441406	-250.683594
1725.034435	3.266904	77.441406	-250.683594
1725.036436	3.266709	35.933800	0.624444
1726.065356	3.265981	198.632812	-1.953125
1726.067356	3.267346	198.632812	-1.953125
1726.069359	3.267558	198.632812	-1.953125
1726.071355	3.267552	198.632812	-1.953125
1726.073357	3.267283	198.632812	-1.953125
1726.075357	3.266887	198.632812	-1.953125
1726.077357	3.266772	35.934494	0.450834
1727.111427	3.267630	72.949219	-260.156250
1727.113428	3.267849	72.949219	-260.156250
1727.115428	3.267931	72.949219	-260.156250
1727.117428	3.267450	72.949219	-260.156250
1727.119428	3.267080	35.937878	0.443069
1728.149959	3.267562	209.570312	-3.222656
1728.151960	3.267816	209.570312	-3.222656
1728.153962	3.267908	209.570312	-3.222656
1728.157958	3.266997	209.570312	-3.222656
1728.159962	3.267006	35.937061	0.427588
1729.191981	3.265547	62.890625	-280.175781
1729.193985	3.267435	62.890625	-280.175781
1729.195983	3.267743	62.890625	-280.175781
1729.197983	3.267884	62.890625	-280.175781
1729.199985	3.267595	62.890625	-280.175781
1729.201985	3.267155	62.890625	-280.175781
1729.203990	3.267029	35.937321	0.441442
1730.232089	3.263515	201.757812	-2.441406
1730.234090	3.266818	201.757812	-2.441406
1730.236090	3.267438	201.757812	-2.441406
1730.238091	3.267549	201.757812	-2.441406
1730.240091	3.267447	201.757812	-2.441406
1730.242090	3.266948	201.757812	-2.441406
1730.244091	3.266835	35.935181	0.426276
1731.278163	3.267364	72.070312	-258.691406
1731.280166	3.267433	72.070312	-258.691406
1731.282164	3.267471	72.070312	-258.691406
1731.284166	3.266970	72.070312	-258.691406
1731.286163	3.266776	35.934536	0.440088
1732.316730	3.265045	201.562500	-3.613281
1732.318731	3.267311	201.562500	-3.613281
1732.320732	3.267700	201.562500	-3.613281
1732.322731	3.267818	201.562500	-3.613281
1732.324730	3.267730	201.562500	-3.613281
1732.326730	3.267112	201.562500	-3.613281
1732.328732	3.266994	35.936935	0.443027
1733.360782	3.267340	70.312500	-257.617187
1733.362783	3.267673	70.312500	-257.617187
1733.364783	3.267711	70.312500	-257.617187
1733.368780	3.267007	70.312500	-257.617187
1733.370783	3.266968	70.312500	-257.617187
1733.372783	3.266934	35.936272	0.449481
1734.400763	3.266630	197.265625	-3.125000
1734.402764	3.267529	197.265625	-3.125000
1734.404764	3.267720	197.265625	-3.125000
1734.406764	3.267714	197.265625	-3.125000
1734.408765	3.267239	197.265625	-3.125000
1734.414771	3.266916	35.936081	0.432958
1735.444832	3.267343	67.675781	-268.164062
1735.446834	3.267551	67.675781	-268.164062
1735.448833	3.267491	67.675781	-268.164062
1735.450836	3.267051	67.675781	-268.164062
1735.452840	3.266745	35.934189	0.435614
1736.485403	3.265620	201.562500	-3.613281
1736.487407	3.267147	201.562500	-3.613281
1736.489405	3.267369	201.562500	-3.613281
1736.491405	3.267366	201.562500	-3.613281
1736.493405	3.267180	201.562500	-3.613281
1736.495407	3.266754	201.562500	-3.613281
1736.497407	3.266656	35.933216	0.429275
1737.523952	2.756577	67.285156	-277.343750
1737.525949	3.267184	67.285156	-277.343750
1737.527949	3.267518	67.285156	-277.343750
1737.529948	3.267522	67.285156	-277.343750
1737.533949	3.266881	67.285156	-277.343750
1737.539947	3.266737	67.285156	-277.343750
1737.541949	3.266714	35.933853	0.451181
1738.570024	3.266225	205.566406	-5.566406
1738.572027	3.267265	205.566406	-5.566406
1738.574026	3.267449	205.566406	-5.566406
1738.576026	3.267473	205.566406	-5.566406
1738.578026	3.267087	205.566406	-5.566406
1738.580028	3.266768	35.934448	0.441251
1739.606943	3.264012	61.718750	-291.796875
1739.610942	3.267527	61.718750	-291.796875
1739.612944	3.267668	61.718750	-291.796875
1739.614944	3.267605	61.718750	-291.796875
1739.616945	3.267017	61.718750	-291.796875
1739.620943	3.266810	35.934910	0.438849
1740.652981	3.264061	197.558594	-3.808594
1740.654984	3.266972	197.558594	-3.808594
1740.656982	3.267384	197.558594	-3.808594
1740.658982	3.267595	197.558594	-3.808594
1740.660982	3.267459	197.558594	-3.808594
1740.662983	3.266923	197.558594	-3.808594
1740.664983	3.266867	35.935539	0.436889
1741.693085	3.263470	72.656250	-270.410156
1741.695088	3.266783	72.656250	-270.410156
1741.699085	3.267330	72.656250	-270.410156
1741.701089	3.267359	72.656250	-270.410156
1741.703089	3.266832	72.656250	-270.410156
1741.705088	3.266659	35.933250	0.438366
1742.731657	3.265107	203.613281	0.878906
1742.733658	3.267244	203.613281	0.878906
1742.735663	3.267674	203.613281	0.878906
1742.737661	3.267689	203.613281	0.878906
1742.739663	3.267550	203.613281	0.878906
1742.741661	3.266975	203.613281	0.878906
1742.743662	3.266857	35.935432	0.451418
1743.777716	2.285644	76.464844	-265.527344
1743.779718	3.266822	76.464844	-265.527344
1743.781718	3.267386	76.464844	-265.527344
1743.783719	3.267565	76.464844	-265.527344
1743.785718	3.267406	76.464844	-265.527344
1743.787717	3.266914	76.464844	-265.527344
1743.789720	3.266794	35.934738	0.440262
1744.814315	3.264465	202.539062	0.488281
1744.816315	3.266921	202.539062	0.488281
1744.820314	3.267384	202.539062	0.488281
1744.822315	3.267316	202.539062	0.488281
1744.824315	3.266757	202.539062	0.488281
1744.826315	3.266721	35.933926	0.442200
1745.862395	3.265658	70.800781	-271.386719
1745.864399	3.267400	70.800781	-271.386719
1745.866397	3.267752	70.800781	-271.386719
1745.868397	3.267770	70.800781	-271.386719
1745.870397	3.267541	70.800781	-271.386719
1745.872397	3.267037	70.800781	-271.386719
1745.874397	3.267018	35.937195	0.443321
1746.901358	3.266977	200.390625	-1.953125
1746.903360	3.267368	200.390625	-1.953125
1746.905360	3.267477	200.390625	-1.953125
1746.907359	3.267492	200.390625	-1.953125
1746.909361	3.267488	200.390625	-1.953125
1746.911362	3.266672	35.933395	0.441052
1747.943910	3.266289	53.613281	-297.070312
1747.945914	3.267565	53.613281	-297.070312
1747.947912	3.267821	53.613281	-297.070312
1747.949912	3.267898	53.613281	-297.070312
1747.951913	3.267510	53.613281	-297.070312
1747.953912	3.267029	53.613281	-297.070312
1747.955913	3.267044	35.937489	0.443094
1748.983993	3.265715	196.875000	-2.441406
1748.985994	3.267180	196.875000	-2.441406
1748.987994	3.267443	196.875000	-2.441406
1748.989993	3.267526	196.875000	-2.441406
1748.993992	3.266758	196.875000	-2.441406
1748.995993	3.266798	196.875000	-2.441406
1748.997994	3.266620	35.932816	0.446485
1750.026052	3.264916	62.988281	-289.843750
1750.028053	3.267163	62.988281	-289.843750
1750.030054	3.267581	62.988281	-289.843750
1750.032054	3.267696	62.988281	-289.843750
1750.034056	3.267601	62.988281	-289.843750
1750.036054	3.267003	62.988281	-289.843750
1750.038053	3.266904	35.935944	0.439910
1751.072098	3.267698	195.507812	-3.808594
1751.074102	3.268029	195.507812	-3.808594
1751.076102	3.268059	195.507812	-3.808594
1751.078104	3.267731	195.507812	-3.808594
1751.080110	3.267320	195.507812	-3.808594
1751.082115	3.267236	35.939594	0.442762
1752.110164	3.265537	71.875000	-275.000000
1752.112169	3.267150	71.875000	-275.000000
1752.114166	3.267503	71.875000	-275.000000
1752.116168	3.267565	71.875000	-275.000000
1752.118166	3.267225	71.875000	-275.000000
1752.120166	3.266768	71.875000	-275.000000
1752.122168	3.266720	35.933914	0.442918
1753.150160	3.264042	201.269531	-1.171875
1753.152160	3.266902	201.269531	-1.171875
1753.154162	3.267391	201.269531	-1.171875
1753.156161	3.267530	201.269531	-1.171875
1753.158161	3.267422	201.269531	-1.171875
1753.160162	3.266900	201.269531	-1.171875
1753.162161	3.266702	35.933720	0.451197
1754.198209	3.267576	55.175781	-305.957031
1754.200210	3.267758	55.175781	-305.957031
1754.202211	3.267717	55.175781	-305.957031
1754.204210	3.267044	55.175781	-305.957031
1754.206210	3.266977	35.936752	0.579628
1755.234267	3.267021	194.726562	2.929687
1755.236269	3.267591	194.726562	2.929687
1755.238270	3.267793	194.726562	2.929687
1755.240268	3.267749	194.726562	2.929687
1755.244267	3.266961	194.726562	2.929687
1755.246268	3.266956	35.936512	0.440614
1756.282315	3.267145	68.261719	-283.593750
1756.284316	3.267367	68.261719	-283.593750
1756.286315	3.267382	68.261719	-283.593750
1756.288315	3.267027	68.261719	-283.593750
1756.290315	3.266701	68.261719	-283.593750
1756.292315	3.266654	35.933197	0.435171
1757.314880	3.265821	199.902344	1.171875
1757.316881	3.267264	199.902344	1.171875
1757.318879	3.267484	199.902344	1.171875
1757.320881	3.267589	199.902344	1.171875
1757.322880	3.267317	199.902344	1.171875
1757.324882	3.266861	199.902344	1.171875
1757.326881	3.266768	35.934448	0.447246
1758.362940	3.265109	58.398437	-298.730469
1758.364941	3.267186	58.398437	-298.730469
1758.366942	3.267555	58.398437	-298.730469
1758.368944	3.267653	58.398437	-298.730469
1758.370942	3.267578	58.398437	-298.730469
1758.372941	3.266927	58.398437	-298.730469
1758.374943	3.266882	35.935707	0.437187
1759.399003	3.265970	196.191406	-0.488281
1759.401004	3.267272	196.191406	-0.488281
1759.403004	3.267494	196.191406	-0.488281
1759.405004	3.267520	196.191406	-0.488281
1759.407003	3.267154	196.191406	-0.488281
1759.409004	3.266787	196.191406	-0.488281
1759.411005	3.266770	35.934467	0.429558
1760.445059	3.265606	53.613281	-301.855469
1760.447061	3.267176	53.613281	-301.855469
1760.449061	3.267439	53.613281	-301.855469
1760.451062	3.267503	53.613281	-301.855469
1760.453062	3.267276	53.613281	-301.855469
1760.455062	3.267201	53.613281	-301.855469
1760.459061	3.266778	35.934563	0.429636
1761.485114	3.266526	188.867187	-0.878906
1761.487115	3.267426	188.867187	-0.878906
1761.489116	3.267545	188.867187	-0.878906
1761.491114	3.267562	188.867187	-0.878906
1761.493114	3.267147	188.867187	-0.878906
1761.495113	3.266819	35.935013	0.420936
1762.527176	3.264122	53.613281	-300.097656
1762.529178	3.266922	53.613281	-300.097656
1762.531178	3.267448	53.613281	-300.097656
1762.533179	3.267550	53.613281	-300.097656
1762.535177	3.267410	53.613281	-300.097656
1762.539177	3.266799	53.613281	-300.097656
1762.541181	3.266796	35.934757	0.442824
1763.567203	3.263783	190.917969	-0.976562
1763.569205	3.266830	190.917969	-0.976562
1763.571206	3.267441	190.917969	-0.976562
1763.573206	3.267592	190.917969	-0.976562
1763.575209	3.267529	190.917969	-0.976562
1763.577207	3.266949	190.917969	-0.976562
1763.579209	3.266846	35.935307	0.439909
1764.613255	3.267358	58.007812	-292.089844
1764.615256	3.267719	58.007812	-292.089844
1764.617258	3.267769	58.007812	-292.089844
1764.619258	3.267476	58.007812	-292.089844
1764.621258	3.267040	58.007812	-292.089844
1764.623258	3.266934	35.936272	0.432518
1765.653825	3.266895	186.425781	-0.585937
1765.655827	3.267448	186.425781	-0.585937
1765.657826	3.267518	186.425781	-0.585937
1765.659827	3.267429	186.425781	-0.585937
1765.661826	3.266954	186.425781	-0.585937
1765.663827	3.266703	35.933731	0.435600
1766.695900	3.267316	45.703125	-318.554687
1766.697902	3.267612	45.703125	-318.554687
1766.699902	3.267704	45.703125	-318.554687
1766.701903	3.267538	45.703125	-318.554687
1766.703903	3.266991	45.703125	-318.554687
1766.705902	3.266922	35.936138	0.428593
1767.735981	3.266551	195.898437	-1.367187
1767.737983	3.267445	195.898437	-1.367187
1767.739984	3.267605	195.898437	-1.367187
1767.741983	3.267554	195.898437	-1.367187
1767.743984	3.267136	195.898437	-1.367187
1767.745982	3.266800	35.934803	0.430335
1768.776977	3.264940	51.562500	-306.640625
1768.778978	3.267203	51.562500	-306.640625
1768.780979	3.267715	51.562500	-306.640625
1768.782979	3.267799	51.562500	-306.640625
1768.784984	3.267737	51.562500	-306.640625
1768.786992	3.267081	51.562500	-306.640625
1768.788998	3.267022	35.937237	0.432068
1769.819047	3.266376	190.625000	-1.074219
1769.821053	3.267358	190.625000	-1.074219
1769.823052	3.267514	190.625000	-1.074219
1769.825050	3.267624	190.625000	-1.074219
1769.827052	3.267100	190.625000	-1.074219
1769.829052	3.266874	35.935616	0.426138
1770.861103	3.263264	45.898437	-317.089844
1770.863105	3.266889	45.898437	-317.089844
1770.865105	3.267526	45.898437	-317.089844
1770.867105	3.267657	45.898437	-317.089844
1770.869106	3.267654	45.898437	-317.089844
1770.871104	3.267161	45.898437	-317.089844
1770.873105	3.266870	35.935574	0.444000
1771.903201	3.266926	183.496094	-0.585937
1771.905203	3.267515	183.496094	-0.585937
1771.907203	3.267732	183.496094	-0.585937
1771.909202	3.267609	183.496094	-0.585937
1771.911203	3.267079	183.496094	-0.585937
1771.913203	3.266868	35.935547	0.579139
1772.945271	3.264583	45.214844	-317.675781
1772.947273	3.267087	45.214844	-317.675781
1772.949274	3.267451	45.214844	-317.675781
1772.951274	3.267620	45.214844	-317.675781
1772.953274	3.267429	45.214844	-317.675781
1772.955272	3.266886	45.214844	-317.675781
1772.957274	3.266712	35.933838	0.427662
1773.983312	3.265073	185.449219	0.097656
1773.985315	3.267343	185.449219	0.097656
1773.987315	3.267843	185.449219	0.097656
1773.989313	3.267894	185.449219	0.097656
1773.991314	3.267669	185.449219	0.097656
1773.993315	3.267255	185.449219	0.097656
1773.995313	3.267123	35.938354	0.432221
1775.031371	3.266932	45.019531	-321.875000
1775.033374	3.267388	45.019531	-321.875000
1775.035374	3.267493	45.019531	-321.875000
1775.037373	3.267330	45.019531	-321.875000
1775.039374	3.266860	45.019531	-321.875000
1775.041373	3.266697	35.933670	0.421896
1776.067444	3.266315	195.214844	0.488281
1776.069445	3.267408	195.214844	0.488281
1776.071445	3.267660	195.214844	0.488281
1776.073450	3.267669	195.214844	0.488281
1776.075452	3.267272	195.214844	0.488281
1776.077452	3.266909	35.935997	0.420565
1777.116442	3.267497	55.664062	-307.617187
1777.118443	3.267704	55.664062	-307.617187
1777.120442	3.267696	55.664062	-307.617187
1777.122441	3.267319	55.664062	-307.617187
1777.124441	3.267006	35.937061	0.420976
1778.150490	3.266046	195.214844	2.539062
1778.152493	3.267156	195.214844	2.539062
1778.154499	3.267435	195.214844	2.539062
1778.156496	3.267295	195.214844	2.539062
1778.158494	3.267045	195.214844	2.539062
1778.160493	3.266649	35.933136	0.420830
1779.197042	3.265399	64.355469	-293.164062
1779.199043	3.267121	64.355469	-293.164062
1779.201043	3.267471	64.355469	-293.164062
1779.203043	3.267546	64.355469	-293.164062
1779.205042	3.267371	64.355469	-293.164062
1779.207043	3.266838	64.355469	-293.164062
1779.209042	3.266749	35.934235	0.426167
1780.233633	3.265848	188.281250	2.832031
1780.235636	3.267334	188.281250	2.832031
1780.237635	3.267618	188.281250	2.832031
1780.239637	3.267724	188.281250	2.832031
1780.241635	3.267338	188.281250	2.832031
1780.243636	3.266999	188.281250	2.832031
1780.245636	3.266795	35.934750	0.425847
1781.279688	3.265420	49.707031	-318.652344
1781.281688	3.267232	49.707031	-318.652344
1781.283688	3.267624	49.707031	-318.652344
1781.285688	3.267665	49.707031	-318.652344
1781.287689	3.267537	49.707031	-318.652344
1781.291686	3.266849	49.707031	-318.652344
1781.293688	3.266906	35.935963	0.416733
1782.319732	3.266571	187.402344	0.292969
1782.321735	3.267301	187.402344	0.292969
1782.323733	3.267433	187.402344	0.292969
1782.325735	3.267354	187.402344	0.292969
1782.327735	3.266895	187.402344	0.292969
1782.329734	3.266664	35.933304	0.442355
1783.361793	3.266742	45.214844	-329.882812
1783.363794	3.266870	45.214844	-329.882812
1783.365794	3.267943	45.214844	-329.882812
1783.367794	3.267961	45.214844	-329.882812
1783.369795	3.267488	45.214844	-329.882812
1783.371794	3.267041	35.937450	0.425510
1784.403826	3.266851	186.230469	-2.441406
1784.405827	3.267599	186.230469	-2.441406
1784.407829	3.267754	186.230469	-2.441406
1784.409828	3.267801	186.230469	-2.441406
1784.411827	3.267256	186.230469	-2.441406
1784.413826	3.267006	35.937061	0.425632
1785.443857	3.266598	60.156250	-299.609375
1785.445860	3.267289	60.156250	-299.609375
1785.447860	3.267460	60.156250	-299.609375
1785.451858	3.266911	60.156250	-299.609375
1785.453861	3.266743	60.156250	-299.609375
1785.455860	3.266630	35.932930	0.421260
1786.486790	3.266566	193.066406	-2.441406
1786.488793	3.267508	193.066406	-2.441406
1786.490793	3.267788	193.066406	-2.441406
1786.492794	3.267764	193.066406	-2.441406
1786.494793	3.267308	193.066406	-2.441406
1786.496792	3.267023	35.937256	0.419961
1787.527753	3.265642	39.062500	-334.960937
1787.529754	3.267089	39.062500	-334.960937
1787.531757	3.267366	39.062500	-334.960937
1787.533756	3.267446	39.062500	-334.960937
1787.535755	3.267210	39.062500	-334.960937
1787.537755	3.266667	39.062500	-334.960937
1787.539754	3.266634	35.932976	0.432367
1788.567853	3.266049	187.597656	-0.683594
1788.571852	3.267756	187.597656	-0.683594
1788.573854	3.267761	187.597656	-0.683594
1788.575854	3.267437	187.597656	-0.683594
1788.577855	3.267020	187.597656	-0.683594
1788.579855	3.266911	35.936016	0.417885
1789.613936	3.267198	52.050781	-306.640625
1789.615936	3.267446	52.050781	-306.640625
1789.617936	3.267533	52.050781	-306.640625
1789.619939	3.267248	52.050781	-306.640625
1789.621940	3.266778	52.050781	-306.640625
1789.623939	3.266717	35.933887	0.418663
1790.650502	2.828827	180.664062	0.683594
1790.652503	3.267147	180.664062	0.683594
1790.654503	3.267442	180.664062	0.683594
1790.656503	3.267453	180.664062	0.683594
1790.658503	3.267210	180.664062	0.683594
1790.660503	3.266783	180.664062	0.683594
1790.662503	3.266728	35.934006	0.406903
1791.696534	3.264214	44.238281	-330.468750
1791.698535	3.264396	44.238281	-330.468750
1791.700538	3.267474	44.238281	-330.468750
1791.704537	3.267360	44.238281	-330.468750
1791.706538	3.266805	44.238281	-330.468750
1791.708538	3.266797	35.934769	0.424764
1792.732556	3.263982	194.042969	2.343750
1792.734555	3.267065	194.042969	2.343750
1792.736557	3.267559	194.042969	2.343750
1792.738558	3.267709	194.042969	2.343750
1792.740557	3.267622	194.042969	2.343750
1792.742556	3.267128	194.042969	2.343750
1792.744558	3.266981	35.936794	0.426125
1793.778557	3.264772	50.781250	-321.289062
1793.780559	3.267133	50.781250	-321.289062
1793.782558	3.267658	50.781250	-321.289062
1793.784557	3.267661	50.781250	-321.289062
1793.786558	3.267534	50.781250	-321.289062
1793.788559	3.267056	50.781250	-321.289062
1793.790558	3.267022	35.937237	0.417979
1794.816609	3.266310	184.277344	3.320312
1794.818609	3.267339	184.277344	3.320312
1794.820608	3.267499	184.277344	3.320312
1794.822609	3.267547	184.277344	3.320312
1794.824609	3.267202	184.277344	3.320312
1794.826608	3.266786	35.934643	0.416548
1795.862663	3.267192	55.761719	-308.691406
1795.864663	3.267938	55.761719	-308.691406
1795.866663	3.268071	55.761719	-308.691406
1795.868663	3.268046	55.761719	-308.691406
1795.870663	3.267479	55.761719	-308.691406
1795.872663	3.267238	35.939613	0.510097
1796.901189	3.265721	183.203125	1.660156
1796.903190	3.267366	183.203125	1.660156
1796.905191	3.267667	183.203125	1.660156
1796.907192	3.267748	183.203125	1.660156
1796.909192	3.267704	183.203125	1.660156
1796.911190	3.266958	183.203125	1.660156
1796.913191	3.266917	35.936089	0.429458
1797.947244	3.267650	45.996094	-327.636719
1797.949247	3.267834	45.996094	-327.636719
1797.951247	3.267907	45.996094	-327.636719
1797.953247	3.267491	45.996094	-327.636719
1797.955248	3.267454	35.941998	0.409106
1798.987288	3.267283	180.078125	-0.781250
1798.989292	3.267617	180.078125	-0.781250
1798.991289	3.267622	180.078125	-0.781250
1798.993290	3.267389	180.078125	-0.781250
1798.995288	3.266973	180.078125	-0.781250
1798.999288	3.266830	35.935131	0.414712
1800.027316	3.265653	43.359375	-334.277344
1800.029318	3.267322	43.359375	-334.277344
1800.031317	3.267654	43.359375	-334.277344
1800.033317	3.267669	43.359375	-334.277344
1800.035317	3.267397	43.359375	-334.277344
1800.039315	3.266901	43.359375	-334.277344
1800.041318	3.266844	35.935280	0.405090
1801.069322	3.265591	182.324219	-1.562500
1801.071325	3.267068	182.324219	-1.562500
1801.073324	3.267427	182.324219	-1.562500
1801.075324	3.267418	182.324219	-1.562500
1801.077326	3.267171	182.324219	-1.562500
1801.079325	3.266724	182.324219	-1.562500
1801.081325	3.266671	35.933384	0.408663
1802.109365	3.263987	55.175781	-311.816406
1802.111366	3.266837	55.175781	-311.816406
1802.113366	3.267323	55.175781	-311.816406
1802.115368	3.267512	55.175781	-311.816406
1802.117371	3.267354	55.175781	-311.816406
1802.119381	3.266888	55.175781	-311.816406
1802.121384	3.266722	35.933941	0.408589
1803.153945	3.266857	187.207031	-2.441406
1803.155948	3.267350	187.207031	-2.441406
1803.157948	3.267495	187.207031	-2.441406
1803.159949	3.267307	187.207031	-2.441406
1803.161946	3.266863	187.207031	-2.441406
1803.163949	3.266689	35.933578	0.669403
1804.196500	3.267860	54.589844	-312.792969
1804.198505	3.268078	54.589844	-312.792969
1804.200502	3.268066	54.589844	-312.792969
1804.202502	3.267625	54.589844	-312.792969
1804.204501	3.267289	35.940182	0.401328
1805.239434	3.267483	190.332031	-2.246094
1805.241436	3.267512	190.332031	-2.246094
1805.243438	3.267407	190.332031	-2.246094
1805.245438	3.266828	190.332031	-2.246094
1805.247436	3.266761	35.934368	0.411308
1806.278433	3.267533	56.640625	-309.375000
1806.280436	3.267960	56.640625	-309.375000
1806.282435	3.267998	56.640625	-309.375000
1806.284436	3.267828	56.640625	-309.375000
1806.286434	3.267259	56.640625	-309.375000
1806.288435	3.267143	35.938568	0.404785
1807.318463	3.265081	184.667969	-2.050781
1807.320463	3.265219	184.667969	-2.050781
1807.322466	3.267567	184.667969	-2.050781
1807.324472	3.267562	184.667969	-2.050781
1807.326477	3.267474	184.667969	-2.050781
1807.328475	3.266842	184.667969	-2.050781
1807.330477	3.266732	35.934055	0.410056
1808.360475	3.265182	52.441406	-317.675781
1808.362476	3.267463	52.441406	-317.675781
1808.364478	3.268018	52.441406	-317.675781
1808.366477	3.268074	52.441406	-317.675781
1808.370474	3.267892	52.441406	-317.675781
1808.372478	3.267245	52.441406	-317.675781
1808.374476	3.267218	35.939404	0.409081
1809.405462	3.267488	183.593750	-1.953125
1809.407466	3.267479	183.593750	-1.953125
1809.409464	3.267644	183.593750	-1.953125
1809.411466	3.267169	183.593750	-1.953125
1809.413465	3.266760	35.934357	0.403274
1810.443514	3.263983	55.175781	-312.011719
1810.445516	3.267044	55.175781	-312.011719
1810.447516	3.267590	55.175781	-312.011719
1810.449516	3.267739	55.175781	-312.011719
1810.451518	3.267712	55.175781	-312.011719
1810.453516	3.267096	55.175781	-312.011719
1810.455517	3.266951	35.936459	0.414131
1811.485546	3.265536	177.050781	-1.464844
1811.487549	3.267214	177.050781	-1.464844
1811.489550	3.267423	177.050781	-1.464844
1811.491548	3.267484	177.050781	-1.464844
1811.493548	3.267257	177.050781	-1.464844
1811.495549	3.266807	177.050781	-1.464844
1811.497548	3.266722	35.933941	0.409201
1812.527602	3.266562	42.968750	-334.375000
1812.529605	3.267479	42.968750	-334.375000
1812.531604	3.267632	42.968750	-334.375000
1812.533603	3.267780	42.968750	-334.375000
1812.535605	3.267283	42.968750	-334.375000
1812.537605	3.266915	35.936062	0.397329
1813.567682	3.265846	185.644531	0.292969
1813.569683	3.267486	185.644531	0.292969
1813.573681	3.267824	185.644531	0.292969
1813.575683	3.267607	185.644531	0.292969
1813.577685	3.267199	185.644531	0.292969
1813.579683	3.267098	35.938080	0.410306
1814.613725	3.267372	48.144531	-322.949219
1814.615728	3.267553	48.144531	-322.949219
1814.617727	3.267648	48.144531	-322.949219
1814.621727	3.266845	48.144531	-322.949219
1814.623727	3.266824	35.935066	0.394393
